 ge Density=5.323 Thickness=500. microns
 Photon Energy (eV), Transmission
    1000.0      0.00000
    1072.5      0.00000
    1145.0      0.00000
    1217.5      0.00000
    1290.0      0.00000
    1362.5      0.00000
    1435.0      0.00000
    1507.5      0.00000
    1580.0      0.00000
    1652.5      0.00000
    1725.0      0.00000
    1797.5      0.00000
    1870.0      0.00000
    1942.5      0.00000
    2015.0      0.00000
    2087.5      0.00000
    2160.0      0.00000
    2232.5      0.00000
    2305.0      0.00000
    2377.5      0.00000
    2450.0      0.00000
    2522.5      0.00000
    2595.0      0.00000
    2667.5      0.00000
    2740.0      0.00000
    2812.5      0.00000
    2885.0      0.00000
    2957.5      0.00000
    3030.0      0.00000
    3102.5      0.00000
    3175.0      0.00000
    3247.5      0.00000
    3320.0      0.00000
    3392.5      0.00000
    3465.0      0.00000
    3537.5      0.00000
    3610.0      0.00000
    3682.5      0.00000
    3755.0      0.00000
    3827.5      0.00000
    3900.0      0.00000
    3972.5      0.00000
    4045.0      0.00000
    4117.5      0.00000
    4190.0      0.00000
    4262.5      0.19618E-43
    4335.0      0.18035E-41
    4407.5      0.12302E-39
    4480.0      0.65547E-38
    4552.5      0.27803E-36
    4625.0      0.95284E-35
    4697.5      0.26768E-33
    4770.0      0.62548E-32
    4842.5      0.12300E-30
    4915.0      0.20634E-29
    4987.5      0.29842E-28
    5060.0      0.37535E-27
    5132.5      0.41391E-26
    5205.0      0.40439E-25
    5277.5      0.35285E-24
    5350.0      0.27620E-23
    5422.5      0.19539E-22
    5495.0      0.12586E-21
    5567.5      0.74285E-21
    5640.0      0.40300E-20
    5712.5      0.20201E-19
    5785.0      0.94094E-19
    5857.5      0.40879E-18
    5930.0      0.16613E-17
    6002.5      0.63514E-17
    6075.0      0.22890E-16
    6147.5      0.78039E-16
    6220.0      0.25258E-15
    6292.5      0.77745E-15
    6365.0      0.22824E-14
    6437.5      0.64093E-14
    6510.0      0.17287E-13
    6582.5      0.44745E-13
    6655.0      0.11141E-12
    6727.5      0.26738E-12
    6800.0      0.62033E-12
    6872.5      0.13934E-11
    6945.0      0.30361E-11
    7017.5      0.64196E-11
    7090.0      0.13194E-10
    7162.5      0.26401E-10
    7235.0      0.51495E-10
    7307.5      0.98016E-10
    7380.0      0.18225E-09
    7452.5      0.33142E-09
    7525.0      0.59006E-09
    7597.5      0.10294E-08
    7670.0      0.17610E-08
    7742.5      0.29580E-08
    7815.0      0.48806E-08
    7887.5      0.79180E-08
    7960.0      0.12638E-07
    8032.5      0.19860E-07
    8105.0      0.30747E-07
    8177.5      0.46919E-07
    8250.0      0.70635E-07
    8322.5      0.10494E-06
    8395.0      0.15394E-06
    8467.5      0.22310E-06
    8540.0      0.31965E-06
    8612.5      0.45285E-06
    8685.0      0.63466E-06
    8757.5      0.88030E-06
    8830.0      0.12090E-05
    8902.5      0.16447E-05
    8975.0      0.22169E-05
    9047.5      0.29618E-05
    9120.0      0.39232E-05
    9192.5      0.51546E-05
    9265.0      0.67189E-05
    9337.5      0.86918E-05
    9410.0      0.11161E-04
    9482.5      0.14231E-04
    9555.0      0.18023E-04
    9627.5      0.22674E-04
    9700.0      0.28344E-04
    9772.5      0.35214E-04
    9845.0      0.43497E-04
    9917.5      0.53415E-04
    9990.0      0.65244E-04
    10063.      0.79256E-04
    10135.      0.95790E-04
    10208.      0.11519E-03
    10280.      0.13785E-03
    10353.      0.16422E-03
    10425.      0.19473E-03
    10497.      0.22992E-03
    10570.      0.27029E-03
    10642.      0.31650E-03
    10715.      0.36911E-03
    10787.      0.42884E-03
    10860.      0.49639E-03
    10932.      0.57247E-03
    11005.      0.65797E-03
    11078.      0.75361E-03
    11150.      0.53417E-23
    11222.      0.12695E-22
    11295.      0.29591E-22
    11367.      0.67687E-22
    11440.      0.15202E-21
    11512.      0.33626E-21
    11585.      0.73151E-21
    11658.      0.15656E-20
    11730.      0.33041E-20
    11803.      0.68616E-20
    11875.      0.14055E-19
    11947.      0.28384E-19
    12020.      0.56472E-19
    12092.      0.11099E-18
    12165.      0.21507E-18
    12238.      0.41134E-18
    12310.      0.77766E-18
    12383.      0.14509E-17
    12455.      0.26754E-17
    12528.      0.48761E-17
    12600.      0.87783E-17
    12672.      0.15642E-16
    12745.      0.27560E-16
    12818.      0.48006E-16
    12890.      0.82837E-16
    12963.      0.14140E-15
    13035.      0.23885E-15
    13108.      0.39997E-15
    13180.      0.66301E-15
    13253.      0.10885E-14
    13325.      0.17721E-14
    13397.      0.28577E-14
    13470.      0.45677E-14
    13542.      0.72431E-14
    13615.      0.11385E-13
    13687.      0.17747E-13
    13760.      0.27455E-13
    13832.      0.42125E-13
    13905.      0.64136E-13
    13977.      0.96980E-13
    14050.      0.14552E-12
    14123.      0.21673E-12
    14195.      0.32072E-12
    14267.      0.47120E-12
    14340.      0.68741E-12
    14412.      0.99702E-12
    14485.      0.14363E-11
    14557.      0.20556E-11
    14630.      0.29248E-11
    14703.      0.41360E-11
    14775.      0.58126E-11
    14848.      0.81239E-11
    14920.      0.11292E-10
    14992.      0.15605E-10
    15065.      0.21447E-10
    15137.      0.29331E-10
    15210.      0.39894E-10
    15283.      0.53971E-10
    15355.      0.72684E-10
    15428.      0.97392E-10
    15500.      0.12985E-09
    15573.      0.17233E-09
    15645.      0.22769E-09
    15717.      0.29943E-09
    15790.      0.39195E-09
    15863.      0.51104E-09
    15935.      0.66339E-09
    16008.      0.85741E-09
    16080.      0.11037E-08
    16153.      0.14153E-08
    16225.      0.18073E-08
    16298.      0.22988E-08
    16370.      0.29141E-08
    16442.      0.36798E-08
    16515.      0.46295E-08
    16587.      0.58032E-08
    16660.      0.72508E-08
    16732.      0.90271E-08
    16805.      0.11200E-07
    16878.      0.13851E-07
    16950.      0.17075E-07
    17023.      0.20981E-07
    17095.      0.25697E-07
    17167.      0.31384E-07
    17240.      0.38213E-07
    17312.      0.46385E-07
    17385.      0.56137E-07
    17457.      0.67762E-07
    17530.      0.81559E-07
    17603.      0.97884E-07
    17675.      0.11716E-06
    17748.      0.13990E-06
    17820.      0.16660E-06
    17893.      0.19788E-06
    17965.      0.23443E-06
    18037.      0.27709E-06
    18110.      0.32670E-06
    18182.      0.38426E-06
    18255.      0.45089E-06
    18328.      0.52798E-06
    18400.      0.61679E-06
    18473.      0.71892E-06
    18545.      0.83610E-06
    18618.      0.97052E-06
    18690.      0.11241E-05
    18762.      0.12992E-05
    18835.      0.14985E-05
    18907.      0.17252E-05
    18980.      0.19822E-05
    19053.      0.22730E-05
    19125.      0.26014E-05
    19198.      0.29722E-05
    19270.      0.33896E-05
    19343.      0.38585E-05
    19415.      0.43843E-05
    19487.      0.49733E-05
    19560.      0.56321E-05
    19632.      0.63673E-05
    19705.      0.71861E-05
    19777.      0.80971E-05
    19850.      0.91100E-05
    19923.      0.10233E-04
    19995.      0.11477E-04
    20067.      0.12852E-04
    20140.      0.14372E-04
    20213.      0.16048E-04
    20285.      0.17892E-04
    20358.      0.19920E-04
    20430.      0.22146E-04
    20503.      0.24590E-04
    20575.      0.27266E-04
    20648.      0.30191E-04
    20720.      0.33385E-04
    20793.      0.36873E-04
    20865.      0.40673E-04
    20938.      0.44808E-04
    21010.      0.49302E-04
    21082.      0.54179E-04
    21155.      0.59474E-04
    21227.      0.65207E-04
    21300.      0.71409E-04
    21372.      0.78110E-04
    21445.      0.85346E-04
    21517.      0.93153E-04
    21590.      0.10156E-03
    21662.      0.11061E-03
    21735.      0.12033E-03
    21808.      0.13078E-03
    21880.      0.14200E-03
    21953.      0.15402E-03
    22025.      0.16689E-03
    22098.      0.18066E-03
    22170.      0.19538E-03
    22243.      0.21110E-03
    22315.      0.22788E-03
    22388.      0.24575E-03
    22460.      0.26478E-03
    22532.      0.28505E-03
    22605.      0.30660E-03
    22677.      0.32949E-03
    22750.      0.35378E-03
    22822.      0.37954E-03
    22895.      0.40685E-03
    22967.      0.43578E-03
    23040.      0.46637E-03
    23112.      0.49872E-03
    23185.      0.53288E-03
    23258.      0.56898E-03
    23330.      0.60706E-03
    23403.      0.64721E-03
    23475.      0.68948E-03
    23548.      0.73398E-03
    23620.      0.78081E-03
    23693.      0.83006E-03
    23765.      0.88178E-03
    23838.      0.93609E-03
    23910.      0.99304E-03
    23982.      0.10528E-02
    24055.      0.11154E-02
    24127.      0.11810E-02
    24200.      0.12496E-02
    24272.      0.13213E-02
    24345.      0.13963E-02
    24417.      0.14747E-02
    24490.      0.15566E-02
    24562.      0.16420E-02
    24635.      0.17311E-02
    24707.      0.18239E-02
    24780.      0.19206E-02
    24853.      0.20213E-02
    24925.      0.21262E-02
    24998.      0.22352E-02
    25070.      0.23485E-02
    25143.      0.24662E-02
    25215.      0.25886E-02
    25288.      0.27156E-02
    25360.      0.28474E-02
    25433.      0.29840E-02
    25505.      0.31256E-02
    25577.      0.32723E-02
    25650.      0.34243E-02
    25722.      0.35816E-02
    25795.      0.37443E-02
    25867.      0.39126E-02
    25940.      0.40865E-02
    26012.      0.42663E-02
    26085.      0.44521E-02
    26157.      0.46439E-02
    26230.      0.48417E-02
    26303.      0.50458E-02
    26375.      0.52562E-02
    26448.      0.54732E-02
    26520.      0.56968E-02
    26593.      0.59270E-02
    26665.      0.61640E-02
    26738.      0.64078E-02
    26810.      0.66587E-02
    26883.      0.69169E-02
    26955.      0.71823E-02
    27027.      0.74549E-02
    27100.      0.77350E-02
    27172.      0.80226E-02
    27245.      0.83178E-02
    27317.      0.86209E-02
    27390.      0.89319E-02
    27462.      0.92507E-02
    27535.      0.95776E-02
    27607.      0.99126E-02
    27680.      0.10256E-01
    27753.      0.10607E-01
    27825.      0.10968E-01
    27898.      0.11336E-01
    27970.      0.11713E-01
    28043.      0.12099E-01
    28115.      0.12494E-01
    28188.      0.12897E-01
    28260.      0.13310E-01
    28333.      0.13731E-01
    28405.      0.14161E-01
    28478.      0.14601E-01
    28550.      0.15049E-01
    28622.      0.15508E-01
    28695.      0.15975E-01
    28767.      0.16452E-01
    28840.      0.16939E-01
    28912.      0.17435E-01
    28985.      0.17940E-01
    29057.      0.18455E-01
    29130.      0.18981E-01
    29202.      0.19516E-01
    29275.      0.20060E-01
    29348.      0.20615E-01
    29420.      0.21179E-01
    29493.      0.21753E-01
    29565.      0.22338E-01
    29638.      0.22933E-01
    29710.      0.23537E-01
    29783.      0.24152E-01
    29855.      0.24777E-01
    29928.      0.25412E-01
    30000.      0.26057E-01
